#Er [keV] , O16 , Na23 , Al27 , Si28 , Si29 , Si30 , Ca40 , Ca44, Fe56, K49
0.001011646  461020200.0  53784200.0  3672240.0  93161250.0  6009839.0  4346226.0  21589150.0  720109.7  0.0  0.0
0.001035211  452656000.0  51477440.0  3550121.0  93428650.0  5713159.0  4120155.0  19218530.0  812088.9  0.0  0.0
0.001059324  442575900.0  49603000.0  3861912.0  88966930.0  5043366.0  3917188.0  20965310.0  528708.1  0.0  0.0
0.001083999  432633300.0  52358520.0  3496314.0  85123760.0  4946068.0  3638545.0  18059710.0  613104.6  0.0  0.0
0.001109248  421785200.0  50895290.0  3799891.0  85085200.0  5409015.0  3748500.0  18049470.0  612043.1  0.0  0.0
0.001135086  413196000.0  48401050.0  3698968.0  79590690.0  5920628.0  3819952.0  18432480.0  713005.2  0.0  0.0
0.001161526  400688600.0  46230280.0  3363497.0  83963780.0  4680200.0  2971115.0  18467690.0  739784.2  0.0  0.0
0.001188581  394406600.0  46631700.0  3201632.0  76845570.0  5055217.0  2766415.0  17232210.0  731885.4  0.0  0.0
0.001216267  375284700.0  45339100.0  3591025.0  72502860.0  4779324.0  3766443.0  16113890.0  643095.8  0.0  0.0
0.001244597  371889600.0  42323240.0  3002737.0  75752280.0  4368509.0  2965915.0  17411570.0  601967.3  0.0  0.0
0.001273587  367105600.0  41510900.0  2954138.0  69018120.0  4815415.0  2831393.0  14602880.0  567775.9  0.0  0.0
0.001303253  358955900.0  42504860.0  3078751.0  69194740.0  5095531.0  3480811.0  15840340.0  555823.5  0.0  0.0
0.00133361  349141700.0  41486880.0  2976222.0  67023640.0  4624639.0  2871927.0  14916200.0  500338.6  0.0  0.0
0.001364674  346855900.0  41209070.0  2836413.0  66038340.0  4991509.0  2965591.0  15480410.0  709653.4  0.0  0.0
0.001396461  330539500.0  40044560.0  2668931.0  64582080.0  4271161.0  2980208.0  15302790.0  497298.9  0.0  0.0
0.001428989  325992000.0  38147060.0  2839839.0  64468310.0  3577986.0  2710221.0  13323480.0  571798.1  0.0  0.0
0.001462274  322063400.0  39159500.0  2877963.0  62954850.0  3991075.0  2164105.0  13992550.0  500782.4  0.0  0.0
0.001496335  314125700.0  36938650.0  2524238.0  59959630.0  4198197.0  2761702.0  14187170.0  615869.3  0.0  0.0
0.001531189  301819100.0  35958590.0  2425561.0  57776240.0  4287499.0  2658418.0  13537400.0  408319.1  0.0  0.0
0.001566855  295647700.0  36254430.0  2644737.0  58176270.0  3580975.0  2627186.0  13596150.0  500312.5  0.0  0.0
0.001603352  289694700.0  33093710.0  2511588.0  59570000.0  4481629.0  2160365.0  13227960.0  552987.6  0.0  0.0
0.001640699  283770100.0  32583550.0  2439483.0  56939790.0  3694145.0  2238941.0  11272950.0  412914.4  0.0  0.0
0.001678915  276828200.0  32202470.0  2487563.0  53143450.0  3424910.0  2404779.0  11817910.0  530219.2  0.0  0.0
0.001718022  270117000.0  31411310.0  2310481.0  54497800.0  3337890.0  2464263.0  12191950.0  480613.4  0.0  0.0
0.00175804  266083800.0  31654780.0  2340565.0  48909870.0  3617494.0  1802279.0  11068940.0  484882.4  0.0  0.0
0.00179899  258909100.0  30901850.0  2006107.0  50311270.0  3282779.0  1873760.0  11855690.0  376628.8  0.0  0.0
0.001840894  253513400.0  30532200.0  2140761.0  51477870.0  3395154.0  1861379.0  10182830.0  451596.9  0.0  0.0
0.001883774  248098000.0  29039640.0  1974768.0  48408340.0  3176446.0  1677262.0  10491150.0  609345.8  0.0  0.0
0.001927653  239022800.0  28777220.0  1903305.0  47243830.0  3079963.0  2147131.0  10199260.0  385039.1  0.0  0.0
0.001972553  236298900.0  27115850.0  2081548.0  46441040.0  2863228.0  1854533.0  10444220.0  297589.4  0.0  0.0
0.0020185  226020100.0  26824420.0  2060420.0  46068320.0  2773449.0  2031549.0  9624241.0  381175.3  0.0  0.0
0.002065517  227232000.0  26713240.0  1935816.0  43771590.0  2622885.0  1996801.0  9907495.0  242788.7  0.0  0.0
0.002113629  220733500.0  25592280.0  1912780.0  43803050.0  2870120.0  2036057.0  9219313.0  378471.1  0.0  0.0
0.002162862  215021300.0  25231890.0  1788267.0  39977480.0  3134715.0  1665863.0  9022908.0  443087.9  0.0  0.0
0.002213241  211431000.0  23737170.0  1940075.0  41165570.0  2697259.0  1639363.0  9702667.0  336318.7  0.0  0.0
0.002264794  205268600.0  24339780.0  1484797.0  39225140.0  2525362.0  1497221.0  8734391.0  315912.2  0.0  0.0
0.002317548  200213900.0  23888420.0  1554263.0  39974530.0  2502481.0  1483026.0  8785733.0  241759.0  0.0  0.0
0.002371531  198520700.0  23346880.0  1522654.0  37926980.0  2560484.0  1600957.0  8850045.0  541785.5  0.0  0.0
0.002426771  193669500.0  22207020.0  1404884.0  38250020.0  2273736.0  1736904.0  8457020.0  319001.2  0.0  0.0
0.002483298  186256800.0  22085400.0  1485743.0  36547260.0  2305815.0  1614064.0  8445425.0  337363.4  0.0  0.0
0.002541141  182482600.0  21337680.0  1425495.0  35718570.0  2593444.0  1378238.0  7946923.0  366618.5  0.0  0.0
0.002600332  178586400.0  21077740.0  1471158.0  35344150.0  2638813.0  1386072.0  7820479.0  351654.3  0.0  0.0
0.002660901  175106600.0  21871840.0  1562630.0  34416960.0  2332501.0  1487594.0  7541477.0  302963.2  0.0  0.0
0.002722882  170831000.0  19797610.0  1459846.0  33186420.0  2422035.0  1448087.0  7531323.0  205388.4  0.0  0.0
0.002786306  166515000.0  19242110.0  1258830.0  33164090.0  2316476.0  1238515.0  6909508.0  380092.3  0.0  0.0
0.002851207  163570800.0  19765510.0  1415122.0  32031820.0  1981477.0  1322451.0  6929972.0  263074.4  0.0  0.0
0.00291762  159374900.0  19596520.0  1311502.0  31358350.0  1802150.0  1384465.0  6922645.0  316393.4  0.0  0.0
0.00298558  156679700.0  18738110.0  1259309.0  30273570.0  2129192.0  1338365.0  6689259.0  294134.8  0.0  0.0
0.003055124  151760800.0  18059450.0  1409691.0  29837270.0  1944888.0  1236871.0  6356970.0  289540.7  0.0  0.0
0.003126287  147930600.0  17422840.0  1439958.0  28574400.0  1808993.0  1159420.0  6179612.0  274396.1  0.0  0.0
0.003199107  145211100.0  16932340.0  1115339.0  27914860.0  1963283.0  1343475.0  5673187.0  179306.3  0.0  0.0
0.003273624  143148200.0  17165610.0  1276366.0  27494350.0  1930180.0  1322816.0  6026732.0  254721.1  0.0  0.0
0.003349876  138398300.0  17080200.0  1229491.0  26904660.0  2005783.0  1196168.0  6104950.0  142688.5  0.0  0.0
0.003427905  134356600.0  16476740.0  1098112.0  27094250.0  1843614.0  1251219.0  6037968.0  203285.3  0.0  0.0
0.003507751  131444200.0  15994280.0  1172629.0  25836460.0  1661036.0  920100.6  6368016.0  238662.3  0.0  0.0
0.003589457  129749900.0  15198830.0  1096232.0  24933520.0  1508400.0  1062620.0  5458840.0  254864.0  0.0  0.0
0.003673066  126272300.0  16227130.0  1013705.0  25440200.0  1714947.0  1154369.0  5352228.0  184947.9  0.0  0.0
0.003758623  122091000.0  15052730.0  1146615.0  23807980.0  1584407.0  1212056.0  5812045.0  257839.6  0.0  0.0
0.003846173  120513900.0  15120790.0  891534.7  23222320.0  1565581.0  898025.4  5215615.0  160748.9  0.0  0.0
0.003935762  116307900.0  14023660.0  974607.4  22013520.0  1493019.0  837724.6  4938944.0  100514.2  0.0  0.0
0.004027437  114086000.0  14339940.0  952571.7  21866840.0  1480021.0  970815.6  4989924.0  255106.6  0.0  0.0
0.004121248  112091600.0  13871910.0  855507.1  21510940.0  1664348.0  882242.7  4565827.0  155719.0  0.0  0.0
0.004217245  108603800.0  13755790.0  1005642.0  20675100.0  1442398.0  1003539.0  4852336.0  176872.2  0.0  0.0
0.004315477  107831100.0  13053130.0  878699.1  21124220.0  1408756.0  869679.5  4746200.0  188225.1  0.0  0.0
0.004415997  106242600.0  12357050.0  856685.1  20951470.0  1390893.0  808674.4  4136654.0  150451.3  0.0  0.0
0.004518859  101020800.0  13212520.0  858898.1  20431340.0  1398019.0  898586.9  4685552.0  172495.1  0.0  0.0
0.004624117  98984440.0  12238700.0  779496.6  19419050.0  1306564.0  827391.4  4331248.0  152911.2  0.0  0.0
0.004731826  96395530.0  12074320.0  841122.0  18564890.0  1264489.0  753361.3  4241034.0  97913.52  0.0  0.0
0.004842045  94605750.0  11958770.0  823125.7  18642070.0  1245392.0  830982.9  4374734.0  172984.3  0.0  0.0
0.00495483  93638310.0  11674800.0  771410.1  17726660.0  1142026.0  845629.7  4193638.0  85275.3  0.0  0.0
0.005070243  90065180.0  11514450.0  641579.4  17419910.0  1277042.0  735282.8  3694091.0  192437.6  0.0  0.0
0.005188344  89738140.0  11445000.0  771045.7  17683650.0  1199883.0  769348.9  3830376.0  146946.6  0.0  0.0
0.005309196  85992970.0  11153370.0  756210.1  15904010.0  1319228.0  782217.9  3549056.0  104362.9  0.0  0.0
0.005432863  84182150.0  10416830.0  654966.0  16721860.0  1191999.0  720649.4  3631050.0  90970.1  0.0  0.0
0.005559411  85180950.0  10645330.0  651836.5  16231270.0  1194327.0  650535.6  3460579.0  154428.6  0.0  0.0
0.005688906  81471050.0  10302840.0  760212.2  15185210.0  982064.8  616460.0  3430180.0  124780.9  0.0  0.0
0.005821418  79487510.0  10197950.0  689063.2  15381940.0  1105144.0  666835.4  3436188.0  148313.7  0.0  0.0
0.005957016  76795160.0  10015540.0  648316.2  15570760.0  968149.2  666864.0  3238069.0  65779.64  0.0  0.0
0.006095773  75071700.0  9578572.0  601395.9  14338870.0  1048764.0  620097.5  3105630.0  145763.2  0.0  0.0
0.006237762  73726970.0  9731681.0  629424.2  14859800.0  1071833.0  575405.6  3054583.0  165033.0  0.0  0.0
0.006383058  71963930.0  8973405.0  616461.5  13858530.0  950360.3  557851.0  2992056.0  154825.4  0.0  0.0
0.006531738  70483970.0  9196395.0  528529.4  13545100.0  916525.4  547593.6  3119622.0  80885.18  0.0  0.0
0.006683882  68029450.0  8914352.0  469833.3  13309760.0  857045.2  535063.7  3012870.0  129149.6  0.0  0.0
0.00683957  67996030.0  8599276.0  606793.7  12815970.0  744961.7  485163.9  2671191.0  147336.3  0.0  0.0
0.006998884  66265120.0  8229557.0  632925.1  13008650.0  910600.2  450360.8  2758033.0  98013.24  0.0  0.0
0.007161909  63645440.0  8329953.0  474334.7  12418530.0  872935.0  577220.2  2721492.0  84392.37  0.0  0.0
0.007328731  63020260.0  8145074.0  491959.1  12457250.0  837742.5  501260.0  2777007.0  46760.93  0.0  0.0
0.007499439  61959410.0  8126166.0  538586.6  11816970.0  793233.7  540427.0  2729228.0  94411.85  0.0  0.0
0.007674123  59627640.0  7826410.0  538914.4  12160860.0  877838.4  457213.8  2474668.0  90060.85  0.0  0.0
0.007852877  58454410.0  7629751.0  435224.7  11035070.0  866500.7  468448.9  2658032.0  121151.4  0.0  0.0
0.008035794  57243220.0  7566973.0  505077.1  11217100.0  779886.0  450891.8  2314086.0  69972.83  0.0  0.0
0.008222971  56323840.0  7575624.0  416443.1  10681430.0  724223.8  511705.4  2376522.0  129923.4  0.0  0.0
0.008414509  54340230.0  7089536.0  405972.4  10590390.0  689891.1  387784.0  2307584.0  56831.31  0.0  0.0
0.008610508  53793970.0  7113411.0  409842.2  10097070.0  653744.3  513507.6  2194138.0  76227.44  0.0  0.0
0.008811073  52481280.0  6943630.0  449021.9  10214810.0  776518.4  435796.6  2226045.0  78099.46  0.0  0.0
0.009016309  51536020.0  6670196.0  490117.1  9866048.0  674241.0  423509.7  2140827.0  83142.69  0.0  0.0
0.009226326  49041630.0  6688738.0  406985.4  9745699.0  720426.6  379484.0  1982203.0  66177.87  0.0  0.0
0.009441234  48592330.0  6300814.0  349327.9  9378604.0  700186.3  476880.7  2171240.0  54541.84  0.0  0.0
0.009661149  47386410.0  6388764.0  401235.0  9431784.0  639537.0  436924.0  2036954.0  44808.24  0.0  0.0
0.009886186  46841240.0  6378314.0  423158.3  9223867.0  615496.6  406841.4  2042208.0  65819.6  0.0  0.0
0.01011646  45901750.0  6227303.0  324263.9  8737209.0  600297.8  430371.5  2037072.0  75291.1  0.0  0.0
0.01035211  44545400.0  5832827.0  396846.3  8443386.0  537182.1  379654.7  1887320.0  48841.11  0.0  0.0
0.01059324  42701940.0  5940630.0  327128.1  8464425.0  655837.7  341594.6  1836757.0  101441.7  0.0  0.0
0.01083999  42992780.0  5667639.0  366855.8  8196061.0  497125.7  388680.7  1797615.0  64010.26  0.0  0.0
0.01109248  41553290.0  5644627.0  334714.1  7985127.0  491457.1  292113.3  1890342.0  67385.61  0.0  0.0
0.01135086  40474110.0  5458844.0  300890.1  7856450.0  568680.0  350118.9  1541909.0  63097.24  0.0  0.0
0.01161526  39634930.0  5359995.0  363210.0  7582820.0  594174.9  314966.8  1677733.0  48962.13  0.0  0.0
0.01188581  38317220.0  5333981.0  369833.7  7574945.0  545239.9  324915.6  1615844.0  61141.5  0.0  0.0
0.01216267  38157930.0  5513462.0  262264.6  7207943.0  499218.7  303133.2  1601869.0  46873.06  0.0  0.0
0.01244597  36736850.0  5455818.0  335054.6  7289995.0  453697.6  322258.4  1546279.0  49389.81  0.0  0.0
0.01273587  36143150.0  5087662.0  320426.7  7083800.0  478762.0  279639.2  1542506.0  76883.58  0.0  0.0
0.01303253  34910370.0  5112708.0  330981.7  6793854.0  450002.2  279740.9  1362372.0  65135.76  0.0  0.0
0.0133361  34632610.0  5014424.0  318287.0  6780934.0  481637.0  304697.4  1473107.0  45282.57  0.0  0.0
0.01364674  33982900.0  5011861.0  273644.2  6353054.0  473473.5  298380.9  1428978.0  46271.93  0.0  0.0
0.01396461  33227630.0  4836007.0  305107.0  6405179.0  473979.4  239473.0  1373200.0  41144.23  0.0  0.0
0.01428989  32587270.0  4559363.0  242555.7  6338624.0  386885.8  272358.4  1325767.0  42593.9  0.0  0.0
0.01462274  30939880.0  4532801.0  244013.2  6302548.0  468148.4  282930.0  1278513.0  56542.89  0.0  0.0
0.01496335  30486540.0  4527766.0  238656.6  5937470.0  374360.5  208588.9  1292579.0  50277.94  0.0  0.0
0.01531189  30532950.0  4464921.0  259579.2  5826464.0  368904.8  229756.0  1215492.0  48935.58  0.0  0.0
0.01566855  29528590.0  4574957.0  212152.3  5456123.0  451547.3  224349.8  1168049.0  47217.76  0.0  0.0
0.01603352  28783010.0  4280785.0  243146.7  5451653.0  338376.5  238993.2  1210658.0  43403.42  0.0  0.0
0.01640699  27590570.0  4129926.0  246228.8  5547086.0  364360.0  242532.5  1087102.0  48790.25  0.0  0.0
0.01678915  27409840.0  4157676.0  223474.7  5115086.0  346596.4  207031.8  1164971.0  26609.66  0.0  0.0
0.01718022  26384480.0  3976092.0  240006.0  5166138.0  309082.1  200635.3  1068538.0  33600.73  0.0  0.0
0.0175804  26026480.0  3818766.0  201909.8  4931301.0  313811.3  186106.4  1024374.0  30735.61  0.0  0.0
0.0179899  25723750.0  3938818.0  210058.4  4830839.0  351493.1  281424.1  1058379.0  34318.6  0.0  0.0
0.01840894  24841440.0  3856981.0  203871.0  4692216.0  292370.7  219228.3  1112333.0  44923.48  0.0  0.0
0.01883774  24454830.0  3731379.0  216079.6  4793375.0  299675.9  171629.8  971577.8  37914.92  0.0  0.0
0.01927653  23472300.0  3606869.0  198306.6  4556767.0  285687.1  197239.2  975316.4  31092.91  0.0  0.0
0.01972553  23206470.0  3679388.0  205565.7  4397695.0  308176.3  186408.5  830284.3  39888.29  0.0  0.0
0.020185  22462120.0  3443297.0  170896.7  4443978.0  289238.5  222556.6  914626.4  25975.29  0.0  0.0
0.02065517  22397100.0  3433107.0  204103.8  4528479.0  294442.5  168337.1  889277.6  31164.18  0.0  0.0
0.02113629  21499700.0  3425792.0  193575.6  4183849.0  284988.9  173097.1  931443.4  51194.16  0.0  0.0
0.02162862  21233190.0  3467525.0  171859.1  4144420.0  255347.3  145242.3  869041.1  29537.2  0.0  0.0
0.02213241  20375240.0  3433722.0  204347.1  3933891.0  246310.1  178305.8  870708.6  33258.6  0.0  0.0
0.02264794  20301580.0  3209323.0  149049.4  3884397.0  270595.4  159288.9  822337.6  32596.89  0.0  0.0
0.02317548  19579480.0  3082896.0  126206.4  3761292.0  230072.6  161701.9  782504.4  23864.49  0.0  0.0
0.02371531  18945870.0  3176606.0  169960.5  3679725.0  263522.2  143506.3  740294.0  33953.86  0.0  0.0
0.02426771  18720270.0  3115000.0  161381.1  3534454.0  248861.5  139183.3  702396.6  28307.4  0.0  0.0
0.02483298  18368100.0  3089565.0  144083.4  3634543.0  239580.2  162398.5  747366.2  24429.39  0.0  0.0
0.02541141  17702790.0  2984364.0  159840.9  3523290.0  258729.0  150588.7  751695.6  21282.39  0.0  0.0
0.02600332  17553810.0  3056358.0  172816.3  3483387.0  186451.0  123295.8  744091.2  29558.46  0.0  0.0
0.02660901  16969130.0  2970971.0  144087.1  3302075.0  216865.4  130051.9  627924.3  20275.72  0.0  0.0
0.02722882  16729800.0  2790053.0  129532.0  3141980.0  228431.6  133959.6  618068.5  18699.08  0.0  0.0
0.02786306  16133820.0  2832874.0  115479.7  3082520.0  227275.8  151177.5  652124.6  26021.7  0.0  0.0
0.02851207  16265100.0  2857059.0  145880.0  2999064.0  211639.7  123382.7  636475.6  12914.29  0.0  0.0
0.0291762  15474620.0  2787210.0  135106.9  3021932.0  204608.6  142583.8  634403.5  21961.24  0.0  0.0
0.0298558  15299680.0  2718124.0  120739.9  2988578.0  197786.0  128361.2  616313.2  23893.85  0.0  0.0
0.03055124  14643850.0  2763932.0  115613.7  2833385.0  212150.0  116932.5  597782.0  18167.04  0.0  0.0
0.03126287  14663790.0  2652141.0  123666.4  2726447.0  182767.2  122615.8  574762.6  19112.0  0.0  0.0
0.03199107  14060890.0  2576423.0  121012.2  2699789.0  184713.0  133693.4  587397.3  23076.83  0.0  0.0
0.03273624  13393000.0  2456610.0  114825.3  2643124.0  185906.8  117143.6  530589.8  22188.03  0.0  0.0
0.03349876  13186620.0  2470321.0  134861.6  2571029.0  188867.3  102959.6  526302.0  17357.69  0.0  0.0
0.03427905  13280350.0  2432403.0  118285.9  2525105.0  173028.5  103819.8  508704.9  20040.33  0.0  0.0
0.03507751  12965090.0  2495575.0  103238.9  2405002.0  152958.7  110405.9  475854.6  19209.92  0.0  0.0
0.03589457  12524020.0  2474955.0  110307.1  2418073.0  157133.6  119291.7  475367.1  20215.07  0.0  0.0
0.03673066  12174430.0  2383243.0  82367.49  2242430.0  152759.8  109520.3  437761.0  15094.82  0.0  0.0
0.03758623  12142600.0  2305743.0  91911.81  2195239.0  165185.2  100687.3  476751.5  15491.94  0.0  0.0
0.03846173  11711390.0  2215447.0  105206.4  2266549.0  160422.3  83533.56  456356.2  12685.57  0.0  0.0
0.03935762  11373480.0  2195729.0  82029.23  2168101.0  134132.1  114186.9  367376.0  13802.62  0.0  0.0
0.04027437  11304050.0  2354178.0  85143.21  2127039.0  169586.8  95357.37  432872.6  20963.92  0.0  0.0
0.04121248  10768350.0  2194645.0  97224.22  2017967.0  174014.8  91325.92  419740.6  11107.57  0.0  0.0
0.04217245  10676220.0  2185303.0  84443.13  2050481.0  131959.0  94566.41  402667.4  14672.34  0.0  0.0
0.04315477  10430860.0  2145692.0  80400.29  2013493.0  141330.6  85236.44  366387.7  11694.3  0.0  0.0
0.04415997  10175310.0  2099254.0  82278.83  1883951.0  144731.1  83648.05  358324.5  16565.93  0.0  0.0
0.04518859  9975189.0  2092566.0  81380.77  1878786.0  125044.3  88065.31  399716.8  12465.7  0.0  0.0
0.04624117  9595042.0  2102366.0  69964.9  1835490.0  153400.9  72660.68  349056.7  18089.5  0.0  0.0
0.04731826  9589349.0  2026480.0  78630.0  1751817.0  122549.2  79740.2  327480.4  10621.42  0.0  0.0
0.04842045  9225831.0  2009123.0  66257.99  1710494.0  127269.7  73530.13  345128.1  7165.787  0.0  0.0
0.0495483  9043508.0  2028394.0  77405.68  1670136.0  132203.4  68525.26  354212.3  11025.17  0.0  0.0
0.05070243  8889408.0  2010588.0  94574.63  1682985.0  105446.8  62384.22  312748.3  8266.983  0.0  0.0
0.05188344  8447101.0  1944478.0  64633.03  1667248.0  130238.2  69518.88  294288.5  13736.72  0.0  0.0
0.05309196  8447812.0  1935656.0  74382.15  1576816.0  117550.8  75006.81  335372.3  10686.66  0.0  0.0
0.05432863  8051238.0  1863718.0  60105.38  1514483.0  114825.6  71736.66  304716.2  12060.8  0.0  0.0
0.05559411  8071996.0  1875490.0  65016.29  1442629.0  113802.3  66485.94  256359.1  12065.13  0.0  0.0
0.05688906  7756763.0  1847407.0  61475.3  1415507.0  101093.3  64457.07  297031.5  5602.044  0.0  0.0
0.05821418  7640862.0  1820078.0  53152.21  1431166.0  103238.2  71833.51  262981.4  9887.503  0.0  0.0
0.05957016  7373518.0  1834248.0  58450.62  1412798.0  95465.4  61438.7  251337.5  8929.631  0.0  0.0
0.06095773  7384743.0  1826061.0  57478.59  1355434.0  101337.5  56614.2  251113.4  9984.556  0.0  0.0
0.06237762  7142952.0  1749478.0  50441.33  1371231.0  87455.36  60429.77  257796.7  7300.125  0.0  0.0
0.06383058  6864094.0  1766454.0  58654.18  1244246.0  98875.7  56152.34  214962.3  10616.31  0.0  0.0
0.06531738  6769597.0  1730214.0  45172.27  1294006.0  88623.62  58023.9  235602.5  8308.158  0.0  0.0
0.06683882  6523473.0  1707722.0  50350.55  1300954.0  97227.52  48279.81  213865.7  5228.14  0.0  0.0
